Frequency(Hz) Current (in uA)
2000 0.05
4000 0.08
6000 0.11
8000 0.15
10000 0.21
12000 0.34
14000 0.57
15000 0.75
16000 0.97
16400 1.04
16800 1.08
16900 1.08
17000 1.07
17100 1.06
17200 1.05
17600 1.03
18000 0.93
18400 0.89
18800 0.78
19000 0.74
20000 0.56
21000 0.42
22000 0.34
23000 0.25
24000 0.19
25000 0.13